CHARGE=1+, 2+ and 3+
###	
###	C:\Users\bla\TRUC
###	Instrument: BIDULE
###    mC-01 
###    PeakWidth 3.00, MiniumIntensity 20, S/N 1
###    Retain Residuals no, Create neutrally no,
###    FullScan Parameters: AdductIon (+)+H (-)-H, LowMass 250, HighMass 8000, MaxCharge charge decon 4, MinPeaks 3
###    Perf. isotope decon yes, Max Charge Istopic decon 6, MW agreement 5.00, Abund. cutoff 2.00, Envelope cutoff 75.00
###    MaxRes   Parameters: AdductIon (+)+H (-)-H, LowMass 100, HighMass 3000 
###    Perf. isotope decon yes, Max Charge Istopic decon 3, Abund. cutoff 2.00
###    MSn      Parameters: AdductIon (+)+H (-)-H, LowMass 50, HighMass 5000 
###    Perf. isotope decon yes, Max Charge Istopic decon 6, Abund. cutoff 0.50
###    Global Charge Limit: yes 3, Prefer FullScan Result: yes, Export what: 2 (0=non deconv/1=deconv only/2=mixed), NoMSMSSignals: 50, Intensity threshold: 20, NoMSSignals (deconv): 2, NoMSSignals (non-deconv): 0, NormalizeData: no, SingleCharged: no
###FS:    #m/z: 494.9705 #charge   1
###MaxRes:#m/z:   0.0000 #charge-128
###MS: 4369/
###MSMS: 4373/
BEGIN IONS
TITLE= Cmpd 1, +MSn(494.9705), 16.8 min
PEPMASS=494.97051	59892
CHARGE=1+
180.97567	456	
214.95217	516	
256.96239	3392	
262.97883	1308	
274.97130	440	1-
338.97034	236	
469.93866	132	
1321.01771	28	
2382.87534	48	
END IONS

###FS:    #m/z: 480.9546 #charge   1
###MaxRes:#m/z:   0.0000 #charge-128
###MS: 4369/
###MSMS: 4374/
BEGIN IONS
TITLE= Cmpd 2, +MSn(480.9546), 16.8 min
PEPMASS=480.95462	47988
CHARGE=1+
214.95214	328	
248.96368	340	
256.96215	1272	
262.97990	324	
863.03156	24	
END IONS

BEGIN IONS
TITLE=Locus:1.1.1.1595.2
CHARGE=3+
PEPMASS=405.55292
RTINSECONDS=603
110.0709 74.0001 1
112.0863 6.0000 1
115.0864 12.0002 1
122.0722 13.0001 1
127.0861 17.0543 1
130.0811 7.3233 1
138.0640 7.0184 1
139.0773 7.0000 1
END IONS 
BEGIN IONS 
TITLE=Locus:1.1.1.1595.2
CHARGE=3+
PEPMASS=405.55292
RTINSECONDS=603
110.0709 74.0001 1
112.0863 6.0000 1
115.0864 12.0002 1
122.0722 13.0001 1
END IONS
###	
###	D:\data\test bsa\bsa 120 fmol_BA3_01_210.d\analysis.baf(bsa 120 fmol_BA3_01_210.d)
###	Instrument: micrOTOF-Q
###    bsa 120 fmol
###    PeakWidth 3.00, MiniumIntensity 20, S/N 1
###    Retain Residuals no, Create neutrally no,
###    FullScan Parameters: AdductIon (+)+H (-)-H, LowMass 250, HighMass 8000, MaxCharge charge decon 4, MinPeaks 3
###    Perf. isotope decon yes, Max Charge Istopic decon 6, MW agreement 5.00, Abund. cutoff 2.00, Envelope cutoff 75.00
###    MaxRes   Parameters: AdductIon (+)+H (-)-H, LowMass 100, HighMass 3000 
###    Perf. isotope decon yes, Max Charge Istopic decon 3, Abund. cutoff 2.00
###    MSn      Parameters: AdductIon (+)+H (-)-H, LowMass 50, HighMass 5000 
###    Perf. isotope decon yes, Max Charge Istopic decon 6, Abund. cutoff 0.50
###    Global Charge Limit: yes 3, Prefer FullScan Result: yes, Export what: 2 (0=non deconv/1=deconv only/2=mixed), NoMSMSSignals: 50, Intensity threshold: 20, NoMSSignals (deconv): 2, NoMSSignals (non-deconv): 0, NormalizeData: no, SingleCharged: no
###FS:    #m/z: 722.3140 #charge   2
###MaxRes:#m/z:   0.0000 #charge-128
###MS: 1413/
###MSMS: 1414/
BEGIN IONS
TITLE= Cmpd 1, +MSn(722.3140), 24.0 min
PEPMASS=722.31397	423
CHARGE=2+
127.17692	53	
137.32540	40	
140.08913	53	
164.62144	55	
187.13860	54	
223.05776	58	
END IONS
BEGIN IONS
TITLE=Locus:1.1.1.22.2 File:"mTSET13.wiff"
PEPMASS=201.05956
RTINSECONDS=7
100.9595 19.0000 1
101.0077 22.0181 1
101.0584 8.0000 1
END IONS
BEGIN IONS
TITLE= Cmpd 1, +MSn(429.0796), 9.0 min
PEPMASS=429.07960	49173
CHARGE=1+
149.05179	128	
163.02903	41	
280.92131	46	
285.00565	42	
328.17304	45	
330.07014	39	
END IONS
BEGIN IONS
TITLE= Cmpd 2, +MSn(529.8919), 11.1 min
PEPMASS=529.89190	39252
CHARGE=1+
182.88402	228	
281.05028	248	
298.84071	240	
342.83212	292	
2307.34596	140	
END IONS

###FS:    #m/z: 358.0868 #charge   1
###MaxRes:#m/z:   0.0000 #charge-128
###MS: 4523/
###MSMS: 4525/
BEGIN IONS
TITLE= Cmpd 3, +MSn(358.0868), 17.4 min
PEPMASS=358.08683	42652
CHARGE=1+
155.02626	388	
157.00623	1092	
158.01396	1780	
163.03111	752	
173.03724	2776	
191.04787	716	
196.03060	440	
242.00299	408	
977.17754	48	
1218.74032	100	
1360.30030	56	
2092.03493	104	
2253.38662	128	
END IONS

###FS:    #m/z: 358.0868 #charge   1
###MaxRes:#m/z:   0.0000 #charge-128
###MS: 4526/
###MSMS: 4527/
BEGIN IONS
TITLE= Cmpd 4, +MSn(358.0868), 17.4 min
PEPMASS=358.08682	606120
CHARGE=1+
155.02701	916	
157.00568	1416	
158.01414	2544	
163.03175	1080	
168.98950	524	
173.03718	2816	
178.01847	508	
179.02644	416	
191.04801	884	
440.02750	84	
626.90764	108	
1052.41123	24	
1545.64093	24	
1884.79528	104	
2038.28694	136	
END IONS

###FS:    #m/z: 358.0867 #charge   1
###MaxRes:#m/z:   0.0000 #charge-128
###MS: 4531/
###MSMS: 4532/
BEGIN IONS
TITLE= Cmpd 5, +MSn(358.0867), 17.5 min
PEPMASS=358.08667	78944
CHARGE=1+
155.02589	928	
157.00593	1564	
158.01378	3056	
163.03202	1188	
173.03704	5532	1+
179.02662	536	
191.04750	924	
198.01342	452	
1319.05552	68	
1759.51315	56	
1871.60788	44	
2071.28741	104	
2434.33290	80	
END IONS

BEGIN IONS
TITLE=Locus:1.1.1.1618.21 File:"EtanerceptSET117.wiff"
PEPMASS=948.80546
CHARGE=3+
SEQ=THTCPPCPAPELLGGPSVFLFPPKPK
RTINSECONDS=1464
101.1068 694.5063 1
110.0699 3590.0017 1
115.0859 3030.0000 1
116.0150 513.0000 1
119.0804 566.0000 1
120.0804 3980.0017 1
122.0708 1053.2382 1
126.0536 3276.0000 1
127.0862 1573.0000 1
129.1013 11260.0020 1
130.0863 853.6752 1
133.0421 3213.6255 1
139.0865 693.0000 1
141.1009 3042.0000 1
147.1118 1955.7485 1
151.1070 515.0000 1
155.0806 1579.0000 1
157.0972 1957.1293 1
166.0608 873.0000 1
167.0833 6225.1523 1
167.1202 808.0000 1
169.0967 3147.2339 1
172.1107 684.7325 1
177.0937 577.0000 1
178.0606 523.8203 1
181.1195 519.5675 1
184.1086 689.4445 1
185.0902 2593.2354 1
193.1101 1153.0000 1
195.0986 7508.0000 1
197.1271 659.6218 1
199.1069 9475.0000 1
199.1827 757.0000 1
202.1188 821.0000 1
204.0733 643.0000 1
205.0913 667.0000 1
209.1259 975.0000 1
211.1216 1270.0000 1
212.0952 641.0000 1
212.1382 4609.0000 1
213.0666 982.7990 1
215.1363 642.0000 1
217.1323 3818.4983 1
219.1483 1141.0000 1
221.1010 3408.0000 1
222.0870 3099.0000 1
224.1023 4435.0000 1
226.1538 38368.0000 1
227.1025 35825.0000 1
229.1236 569.8895 1
230.0939 5338.0000 1
233.1643 3612.0000 1
234.0937 975.0000 1
471.2684 1371.0000 2
237.1362 567.0000 1
238.1211 1093.0000 1
238.1533 1492.0000 1
239.1126 27455.0000 1
241.0644 1371.0000 1
481.2528 489.1622 2
242.1110 2843.0000 1
243.1368 1897.2432 1
244.1642 24117.0000 1
245.1266 4381.0000 1
246.0971 1448.0000 1
247.1432 2499.0000 1
249.0950 1944.0000 1
499.2349 1191.0000 2
251.1066 565.0000 1
253.1250 525.0000 1
253.6200 991.7300 1
254.1144 822.0000 1
254.1485 884.0000 1
256.1630 1669.0000 1
257.1225 614.0000 1
258.0892 9038.0000 1
259.1436 987.0000 1
260.1130 1102.0000 1
261.1585 4595.0000 1
262.0829 2003.0000 1
264.1326 4970.0000 1
266.1489 7913.0000 1
267.1097 769.7083 1
268.1421 950.0000 1
269.1482 525.0000 1
270.0888 513.0000 1
271.1397 667.0000 1
272.1122 912.0000 1
273.1427 678.0000 1
276.1023 501.0000 1
277.1615 513.0000 1
278.1241 3835.0000 1
280.1642 644.0000 1
281.1234 5616.0000 1
282.1799 603.0000 1
565.2645 1143.2338 2
284.1075 1206.0000 1
284.1596 4686.0000 1
285.1246 500.0000 1
286.1299 1180.0000 1
287.2135 1757.2338 1
289.1542 500.0000 1
290.1242 980.4987 1
292.1013 886.0000 1
294.1788 2057.0000 1
295.1754 3220.0000 1
296.1359 2601.0000 1
298.1420 1944.0000 1
299.1296 4110.0000 1
304.1407 2328.0110 1
312.1910 3061.0000 1
313.1868 1847.0000 1
315.2038 1346.0000 1
316.1620 2344.0000 1
318.1176 1361.2338 1
322.1518 8362.0000 1
323.2072 64278.0000 1
327.1485 11184.0000 1
329.1259 5305.0000 1
334.1749 2278.0000 1
335.1722 2139.0000 1
337.1296 5417.0000 1
339.1765 2536.0000 1
340.1815 34735.0000 1
342.1811 1294.7623 1
694.2979 2223.0000 2
349.1872 2928.0000 1
352.1943 3280.0000 1
353.1653 2945.0000 1
354.2496 1399.0000 1
355.1425 29447.0000 1
359.1481 1528.0000 1
360.2279 1372.0000 1
361.1872 2308.0000 1
366.2091 1335.0000 1
367.1981 4163.0000 1
370.2069 1565.0000 1
371.1649 1372.0000 1
372.1674 1462.0000 1
372.2581 6647.0000 1
373.1709 2872.0000 1
380.1918 5552.0000 1
381.1350 3206.0000 1
382.1616 5242.9341 1
383.1128 1492.9342 1
383.1712 1085.3739 1
390.2096 1248.0000 1
391.1707 2894.0000 1
394.2086 1885.0000 1
395.1924 8900.0000 1
397.2088 1604.0000 1
398.1925 3333.0000 1
399.1428 3590.0000 1
403.2333 3684.0000 1
408.2258 2238.0000 1
409.1275 5855.0000 1
409.1839 2797.0000 1
413.2176 3013.0000 1
420.2585 2643.0000 1
424.1646 2962.0000 1
425.2747 2719.0000 1
426.1792 5403.0000 1
853.2675 5840.0000 2
428.1807 2823.0000 1
429.2483 1863.0000 1
859.4243 1900.2369 2
431.2253 4223.0000 1
436.2206 2051.0000 1
437.2490 1256.0000 1
438.1535 3632.9375 1
438.2704 8586.0000 1
448.2551 3211.0000 1
451.3048 1270.0000 1
452.1940 5645.0000 1
453.2686 5139.0000 1
454.1862 5417.0000 1
454.2440 1428.0359 1
456.1671 4511.0015 1
462.2732 1834.0000 1
464.1712 1718.0000 1
465.2719 1743.0000 1
466.2652 1448.0000 1
469.2191 4120.0000 1
469.3130 11650.0000 1
470.2721 5100.0000 1
472.1973 5616.0000 1
477.2558 2310.4778 1
480.1676 1608.6261 1
480.2796 3026.0000 1
482.1825 12769.0000 1
483.2927 1487.0000 1
487.1776 2247.0000 1
488.2471 3061.0000 1
490.2542 1459.0000 1
493.2764 2804.0000 1
495.2386 21689.0000 1
500.1917 29452.0000 1
506.2379 2246.0000 1
508.2744 4651.0000 1
510.2920 1192.0000 1
511.2879 1348.0000 1
1022.4169 2527.0000 2
515.1735 3974.0000 1
516.3168 1358.0000 1
517.2864 1692.0016 1
522.2858 1259.0000 1
523.2338 35385.0000 1
526.2095 1116.0000 1
526.3026 1554.0000 1
527.2618 4965.9624 1
535.2084 1067.6218 1
541.2696 1922.0000 1
544.3117 1426.0000 1
545.2681 2590.2200 1
548.3550 10211.0000 1
551.2559 1959.0032 1
553.2215 1558.7834 1
555.2258 1103.0000 1
560.2465 1107.9575 1
561.3383 1049.0000 1
565.2787 1037.0000 1
566.3663 105596.0000 1
569.2463 2348.0000 1
576.3197 1101.0000 1
577.2949 1552.0000 1
579.2318 5450.0000 1
583.3292 1590.0000 1
585.3359 1284.6218 1
592.2727 1166.0000 1
593.2521 1309.1239 1
593.3651 1718.0000 1
595.3251 1871.0000 1
597.2452 12944.0000 1
606.2725 1691.0000 1
607.2559 843.7302 1
613.3421 1824.0000 1
616.2178 1461.0000 1
621.3582 3758.0000 1
622.3362 1022.4934 1
624.2890 2033.6227 1
630.3571 1563.0000 1
637.3027 1359.0000 1
640.3435 5535.0000 1
650.2726 1959.0000 1
652.2756 1538.4840 1
655.2656 1191.6849 1
658.3523 1974.0000 1
666.2838 1921.0000 1
668.2974 1768.0000 1
674.3439 1522.0000 1
676.2851 2128.0000 1
678.3812 1308.0000 1
1361.6002 1425.2396 2
683.2629 4050.2380 1
691.3835 1678.0000 1
693.3158 1102.0000 1
694.2986 3012.0032 1
695.4276 1563.0000 1
703.3090 1038.0000 1
711.3227 3417.0000 1
713.4359 16364.0000 1
721.3287 6655.0000 1
730.4051 1076.0000 1
733.3861 1988.0000 1
735.4024 1529.0000 1
737.3584 1729.0000 1
745.3079 3797.0000 1
749.3303 13029.0000 1
751.3982 1512.0000 1
753.2803 1257.0000 1
753.4250 1232.0000 1
760.4109 1305.0000 1
763.3192 14383.0000 1
766.3359 2897.0000 1
771.4360 1036.4594 1
777.4290 1077.0000 1
784.3097 1977.0266 1
787.4135 2570.0000 1
792.3029 1247.0000 1
805.4235 2197.6218 1
808.3239 1498.0000 1
810.3064 2022.7136 1
818.3090 1732.4994 1
822.4741 1347.0000 1
826.3351 5546.0034 1
826.5198 6925.0000 1
832.4576 2167.0000 1
834.4156 6490.0000 1
836.3168 9347.2383 1
844.4165 1536.4677 1
845.4477 771.3854 1
850.4645 1591.0000 1
854.3295 27963.0000 1
860.3798 1156.0000 1
862.4116 7286.6157 1
879.4149 1218.0000 1
880.3455 2193.0000 1
894.3970 1090.1432 1
900.5011 1742.0000 1
902.4753 699.6525 1
903.3550 928.0000 1
909.3653 1042.0000 1
913.4082 1552.0046 1
919.4769 1094.1797 1
921.3657 2035.0000 1
922.4005 1051.7040 1
931.4078 2729.0000 1
933.3735 762.1481 1
947.4995 2901.4995 1
951.3823 1473.6165 1
963.4557 1032.4962 1
973.5900 16355.0000 1
975.5004 5248.0000 1
976.4171 1845.0000 1
978.4023 1041.0000 1
979.5295 975.0032 1
986.3924 1091.2355 1
992.5208 847.7131 1
994.4282 6654.0000 1
997.5308 1489.4978 1
1000.5204 892.6753 1
1004.4091 7775.0000 1
1014.5237 783.3558 1
1022.4222 28637.0000 1
1032.5109 2580.0000 1
1034.4124 861.7317 1
1061.5361 875.0000 1
1072.6558 4053.0000 1
1076.5309 827.2255 1
1089.5388 3950.0000 1
1092.5952 1135.6218 1
1102.5079 630.5685 1
1106.4768 644.0000 1
1110.6229 1162.0735 1
1119.4944 737.4962 1
1127.6305 835.4893 1
1135.5281 615.0000 1
1140.5563 624.5916 1
1141.6160 407.8405 1
1147.4692 596.9687 1
1157.4999 523.2263 1
1159.6864 3254.0718 1
1164.5756 623.0862 1
1173.1459 1488.0000 1
1173.6490 2295.0000 1
1192.5497 530.6532 1
1203.5364 512.8306 1
1215.5992 518.0886 1
1220.5239 1859.0000 1
1230.5077 1849.9396 1
1239.7008 891.6234 1
1248.5155 11569.9941 1
1255.6125 707.0000 1
1256.7416 12180.0000 1
1260.5651 810.2402 1
1273.6177 720.2096 1
1313.7654 7400.0000 1
1316.5768 422.7157 1
1326.7111 681.4924 1
1333.6029 2115.9314 1
1343.5956 1040.0000 1
1344.7159 860.0000 1
1352.7772 581.4962 1
1354.7236 753.7325 1
1361.6039 6323.9282 1
1370.7883 23468.0000 1
1372.6849 694.0724 1
1372.7919 974.0000 1
1425.7849 493.7359 1
1446.6915 999.0000 1
1456.6859 743.7073 1
1474.6799 3540.0000 1
1483.8745 8192.0000 1
1485.8745 430.4061 1
1487.6844 412.0000 1
1503.7085 411.0016 1
1513.6759 629.9535 1
1519.7606 465.4794 1
1531.7058 2483.9934 1
1542.6985 221.4709 1
1560.7202 618.0000 1
1570.7197 723.4971 1
1579.9412 172.7301 1
1588.7261 3502.0000 1
1596.9531 2317.0000 1
1598.9393 171.4962 1
1604.8597 297.0000 1
1632.8357 669.0000 1
1682.8741 237.7840 1
1725.9958 808.0000 1
1751.9083 297.0000 1
1752.9196 310.0000 1
1772.8057 159.9733 1
1779.9305 1145.6250 1
1787.0485 182.0000 1
1805.0272 168.0016 1
1806.0325 182.0000 1
1823.0433 3568.0000 1
1824.0469 3152.0000 1
1825.0604 422.0000 1
1894.0883 246.0032 1
1895.0862 259.0000 1
1921.9078 55.6218 1
1974.1161 71.9925 1
1991.1472 844.0000 1
1992.1509 575.0000 1
1993.1392 65.0000 1
END IONS
###FS:    #m/z: 358.0868 #charge   1
###MaxRes:#m/z:   0.0000 #charge-128
###MS: 4526/
###MSMS: 4527/
BEGIN IONS
TITLE= Cmpd 4, +MSn(358.0868), 17.4 min
PEPMASS=358.08682	606120.2
CHARGE=1+
155.02701	916	
157.00568	1416	
158.01414	2544	
163.03175	1080	
168.98950	524	
173.03718	2816	
178.01847	508	
179.02644	416	
191.04801	884	
440.02750	84	
626.90764	108	
1052.41123	24	
1545.64093	24	
1884.79528	104	
2038.28694	136	
END IONS
